#  E (eV)   dosup(E)     dosdw(E)   Int dos(E) EFermi =   12.043  12.043 eV
   5.000  0.1428E+00  0.1428E+00  0.1343E+02
   5.010  0.1421E+00  0.1421E+00  0.1343E+02
   5.020  0.1413E+00  0.1413E+00  0.1343E+02
   5.030  0.1406E+00  0.1406E+00  0.1343E+02
   5.040  0.1399E+00  0.1399E+00  0.1344E+02
   5.050  0.1391E+00  0.1391E+00  0.1344E+02
   5.060  0.1384E+00  0.1384E+00  0.1344E+02
   5.070  0.1377E+00  0.1377E+00  0.1345E+02
   5.080  0.1370E+00  0.1370E+00  0.1345E+02
   5.090  0.1363E+00  0.1363E+00  0.1345E+02
   5.100  0.1356E+00  0.1356E+00  0.1345E+02
   5.110  0.1349E+00  0.1349E+00  0.1346E+02
   5.120  0.1342E+00  0.1342E+00  0.1346E+02
   5.130  0.1335E+00  0.1335E+00  0.1346E+02
   5.140  0.1329E+00  0.1328E+00  0.1346E+02
   5.150  0.1322E+00  0.1322E+00  0.1347E+02
   5.160  0.1315E+00  0.1315E+00  0.1347E+02
   5.170  0.1308E+00  0.1308E+00  0.1347E+02
   5.180  0.1302E+00  0.1302E+00  0.1347E+02
   5.190  0.1295E+00  0.1295E+00  0.1348E+02
   5.200  0.1288E+00  0.1288E+00  0.1348E+02
   5.210  0.1282E+00  0.1282E+00  0.1348E+02
   5.220  0.1275E+00  0.1275E+00  0.1349E+02
   5.230  0.1269E+00  0.1269E+00  0.1349E+02
   5.240  0.1262E+00  0.1262E+00  0.1349E+02
   5.250  0.1256E+00  0.1256E+00  0.1349E+02
   5.260  0.1250E+00  0.1250E+00  0.1350E+02
   5.270  0.1243E+00  0.1243E+00  0.1350E+02
   5.280  0.1237E+00  0.1237E+00  0.1350E+02
   5.290  0.1231E+00  0.1231E+00  0.1350E+02
   5.300  0.1225E+00  0.1225E+00  0.1351E+02
   5.310  0.1219E+00  0.1219E+00  0.1351E+02
   5.320  0.1212E+00  0.1212E+00  0.1351E+02
   5.330  0.1206E+00  0.1206E+00  0.1351E+02
   5.340  0.1200E+00  0.1200E+00  0.1351E+02
   5.350  0.1194E+00  0.1194E+00  0.1352E+02
   5.360  0.1188E+00  0.1188E+00  0.1352E+02
   5.370  0.1183E+00  0.1183E+00  0.1352E+02
   5.380  0.1178E+00  0.1178E+00  0.1352E+02
   5.390  0.1173E+00  0.1173E+00  0.1353E+02
   5.400  0.1168E+00  0.1168E+00  0.1353E+02
   5.410  0.1163E+00  0.1163E+00  0.1353E+02
   5.420  0.1159E+00  0.1159E+00  0.1353E+02
   5.430  0.1155E+00  0.1155E+00  0.1354E+02
   5.440  0.1150E+00  0.1150E+00  0.1354E+02
   5.450  0.1146E+00  0.1146E+00  0.1354E+02
   5.460  0.1142E+00  0.1142E+00  0.1354E+02
   5.470  0.1140E+00  0.1140E+00  0.1355E+02
   5.480  0.1140E+00  0.1140E+00  0.1355E+02
   5.490  0.1143E+00  0.1143E+00  0.1355E+02
   5.500  0.1148E+00  0.1148E+00  0.1355E+02
   5.510  0.1155E+00  0.1155E+00  0.1355E+02
   5.520  0.1164E+00  0.1164E+00  0.1356E+02
   5.530  0.1175E+00  0.1175E+00  0.1356E+02
   5.540  0.1188E+00  0.1188E+00  0.1356E+02
   5.550  0.1203E+00  0.1203E+00  0.1356E+02
   5.560  0.1220E+00  0.1220E+00  0.1357E+02
   5.570  0.1239E+00  0.1239E+00  0.1357E+02
   5.580  0.1260E+00  0.1260E+00  0.1357E+02
   5.590  0.1283E+00  0.1283E+00  0.1357E+02
   5.600  0.1308E+00  0.1308E+00  0.1358E+02
   5.610  0.1335E+00  0.1335E+00  0.1358E+02
   5.620  0.1364E+00  0.1364E+00  0.1358E+02
   5.630  0.1395E+00  0.1395E+00  0.1358E+02
   5.640  0.1428E+00  0.1428E+00  0.1359E+02
   5.650  0.1474E+00  0.1474E+00  0.1359E+02
   5.660  0.1568E+00  0.1568E+00  0.1359E+02
   5.670  0.1669E+00  0.1669E+00  0.1360E+02
   5.680  0.1777E+00  0.1777E+00  0.1360E+02
   5.690  0.1893E+00  0.1893E+00  0.1360E+02
   5.700  0.2016E+00  0.2016E+00  0.1361E+02
   5.710  0.2146E+00  0.2146E+00  0.1361E+02
   5.720  0.2283E+00  0.2283E+00  0.1362E+02
   5.730  0.2428E+00  0.2428E+00  0.1362E+02
   5.740  0.2606E+00  0.2606E+00  0.1363E+02
   5.750  0.2736E+00  0.2736E+00  0.1363E+02
   5.760  0.2890E+00  0.2890E+00  0.1364E+02
   5.770  0.3020E+00  0.3020E+00  0.1364E+02
   5.780  0.3144E+00  0.3144E+00  0.1365E+02
   5.790  0.3262E+00  0.3262E+00  0.1366E+02
   5.800  0.3374E+00  0.3374E+00  0.1366E+02
   5.810  0.3479E+00  0.3480E+00  0.1367E+02
   5.820  0.3579E+00  0.3579E+00  0.1368E+02
   5.830  0.3673E+00  0.3673E+00  0.1368E+02
   5.840  0.3761E+00  0.3761E+00  0.1369E+02
   5.850  0.3843E+00  0.3843E+00  0.1370E+02
   5.860  0.3919E+00  0.3919E+00  0.1371E+02
   5.870  0.3989E+00  0.3989E+00  0.1371E+02
   5.880  0.4053E+00  0.4053E+00  0.1372E+02
   5.890  0.4104E+00  0.4104E+00  0.1373E+02
   5.900  0.4160E+00  0.4160E+00  0.1374E+02
   5.910  0.4195E+00  0.4195E+00  0.1375E+02
   5.920  0.4219E+00  0.4219E+00  0.1376E+02
   5.930  0.4240E+00  0.4240E+00  0.1376E+02
   5.940  0.4260E+00  0.4260E+00  0.1377E+02
   5.950  0.4277E+00  0.4277E+00  0.1378E+02
   5.960  0.4293E+00  0.4293E+00  0.1379E+02
   5.970  0.4307E+00  0.4307E+00  0.1380E+02
   5.980  0.4318E+00  0.4318E+00  0.1381E+02
   5.990  0.4328E+00  0.4328E+00  0.1382E+02
   6.000  0.4336E+00  0.4336E+00  0.1382E+02
   6.010  0.4342E+00  0.4342E+00  0.1383E+02
   6.020  0.4346E+00  0.4346E+00  0.1384E+02
   6.030  0.4348E+00  0.4348E+00  0.1385E+02
   6.040  0.4347E+00  0.4347E+00  0.1386E+02
   6.050  0.4345E+00  0.4345E+00  0.1387E+02
   6.060  0.4341E+00  0.4341E+00  0.1388E+02
   6.070  0.4335E+00  0.4335E+00  0.1388E+02
   6.080  0.4327E+00  0.4327E+00  0.1389E+02
   6.090  0.4317E+00  0.4317E+00  0.1390E+02
   6.100  0.4305E+00  0.4305E+00  0.1391E+02
   6.110  0.4293E+00  0.4293E+00  0.1392E+02
   6.120  0.4281E+00  0.4281E+00  0.1393E+02
   6.130  0.4270E+00  0.4270E+00  0.1394E+02
   6.140  0.4260E+00  0.4260E+00  0.1394E+02
   6.150  0.4242E+00  0.4242E+00  0.1395E+02
   6.160  0.4226E+00  0.4226E+00  0.1396E+02
   6.170  0.4210E+00  0.4210E+00  0.1397E+02
   6.180  0.4195E+00  0.4195E+00  0.1398E+02
   6.190  0.4181E+00  0.4181E+00  0.1399E+02
   6.200  0.4168E+00  0.4168E+00  0.1400E+02
   6.210  0.4158E+00  0.4158E+00  0.1400E+02
   6.220  0.4150E+00  0.4150E+00  0.1401E+02
   6.230  0.4144E+00  0.4144E+00  0.1402E+02
   6.240  0.4137E+00  0.4137E+00  0.1403E+02
   6.250  0.4126E+00  0.4126E+00  0.1404E+02
   6.260  0.4111E+00  0.4111E+00  0.1404E+02
   6.270  0.4097E+00  0.4097E+00  0.1405E+02
   6.280  0.4084E+00  0.4084E+00  0.1406E+02
   6.290  0.4072E+00  0.4072E+00  0.1407E+02
   6.300  0.4061E+00  0.4061E+00  0.1408E+02
   6.310  0.4051E+00  0.4051E+00  0.1409E+02
   6.320  0.4042E+00  0.4042E+00  0.1409E+02
   6.330  0.4034E+00  0.4034E+00  0.1410E+02
   6.340  0.4027E+00  0.4027E+00  0.1411E+02
   6.350  0.4021E+00  0.4021E+00  0.1412E+02
   6.360  0.4017E+00  0.4017E+00  0.1413E+02
   6.370  0.4124E+00  0.4124E+00  0.1413E+02
   6.380  0.4042E+00  0.4042E+00  0.1414E+02
   6.390  0.3926E+00  0.3926E+00  0.1415E+02
   6.400  0.3834E+00  0.3834E+00  0.1416E+02
   6.410  0.3765E+00  0.3765E+00  0.1417E+02
   6.420  0.3719E+00  0.3719E+00  0.1417E+02
   6.430  0.3696E+00  0.3696E+00  0.1418E+02
   6.440  0.3693E+00  0.3693E+00  0.1419E+02
   6.450  0.3693E+00  0.3693E+00  0.1420E+02
   6.460  0.3693E+00  0.3693E+00  0.1420E+02
   6.470  0.3693E+00  0.3693E+00  0.1421E+02
   6.480  0.3693E+00  0.3693E+00  0.1422E+02
   6.490  0.3694E+00  0.3694E+00  0.1422E+02
   6.500  0.3695E+00  0.3695E+00  0.1423E+02
   6.510  0.3696E+00  0.3696E+00  0.1424E+02
   6.520  0.3697E+00  0.3697E+00  0.1425E+02
   6.530  0.3697E+00  0.3697E+00  0.1425E+02
   6.540  0.3698E+00  0.3698E+00  0.1426E+02
   6.550  0.3699E+00  0.3699E+00  0.1427E+02
   6.560  0.3700E+00  0.3700E+00  0.1428E+02
   6.570  0.3701E+00  0.3701E+00  0.1428E+02
   6.580  0.3702E+00  0.3702E+00  0.1429E+02
   6.590  0.3703E+00  0.3703E+00  0.1430E+02
   6.600  0.3704E+00  0.3704E+00  0.1431E+02
   6.610  0.3705E+00  0.3705E+00  0.1431E+02
   6.620  0.3706E+00  0.3706E+00  0.1432E+02
   6.630  0.3708E+00  0.3708E+00  0.1433E+02
   6.640  0.3712E+00  0.3712E+00  0.1434E+02
   6.650  0.3717E+00  0.3717E+00  0.1434E+02
   6.660  0.3721E+00  0.3721E+00  0.1435E+02
   6.670  0.3726E+00  0.3726E+00  0.1436E+02
   6.680  0.3731E+00  0.3731E+00  0.1437E+02
   6.690  0.3735E+00  0.3735E+00  0.1437E+02
   6.700  0.3741E+00  0.3741E+00  0.1438E+02
   6.710  0.3746E+00  0.3746E+00  0.1439E+02
   6.720  0.3752E+00  0.3752E+00  0.1440E+02
   6.730  0.3760E+00  0.3760E+00  0.1440E+02
   6.740  0.3770E+00  0.3770E+00  0.1441E+02
   6.750  0.3781E+00  0.3781E+00  0.1442E+02
   6.760  0.3795E+00  0.3795E+00  0.1443E+02
   6.770  0.3811E+00  0.3811E+00  0.1443E+02
   6.780  0.3828E+00  0.3828E+00  0.1444E+02
   6.790  0.3848E+00  0.3848E+00  0.1445E+02
   6.800  0.3869E+00  0.3869E+00  0.1446E+02
   6.810  0.3893E+00  0.3893E+00  0.1446E+02
   6.820  0.3909E+00  0.3909E+00  0.1447E+02
   6.830  0.3914E+00  0.3914E+00  0.1448E+02
   6.840  0.3909E+00  0.3909E+00  0.1449E+02
   6.850  0.3893E+00  0.3893E+00  0.1450E+02
   6.860  0.3866E+00  0.3866E+00  0.1450E+02
   6.870  0.3837E+00  0.3837E+00  0.1451E+02
   6.880  0.3840E+00  0.3840E+00  0.1452E+02
   6.890  0.3846E+00  0.3846E+00  0.1453E+02
   6.900  0.3855E+00  0.3855E+00  0.1453E+02
   6.910  0.3864E+00  0.3864E+00  0.1454E+02
   6.920  0.3874E+00  0.3874E+00  0.1455E+02
   6.930  0.3884E+00  0.3884E+00  0.1456E+02
   6.940  0.3895E+00  0.3895E+00  0.1456E+02
   6.950  0.3905E+00  0.3905E+00  0.1457E+02
   6.960  0.3917E+00  0.3917E+00  0.1458E+02
   6.970  0.3928E+00  0.3928E+00  0.1459E+02
   6.980  0.3941E+00  0.3941E+00  0.1460E+02
   6.990  0.3953E+00  0.3953E+00  0.1460E+02
   7.000  0.3966E+00  0.3966E+00  0.1461E+02
   7.010  0.3977E+00  0.3977E+00  0.1462E+02
   7.020  0.3986E+00  0.3986E+00  0.1463E+02
   7.030  0.3995E+00  0.3995E+00  0.1464E+02
   7.040  0.4004E+00  0.4004E+00  0.1464E+02
   7.050  0.4013E+00  0.4013E+00  0.1465E+02
   7.060  0.4024E+00  0.4024E+00  0.1466E+02
   7.070  0.4034E+00  0.4034E+00  0.1467E+02
   7.080  0.4045E+00  0.4045E+00  0.1468E+02
   7.090  0.4056E+00  0.4056E+00  0.1468E+02
   7.100  0.4068E+00  0.4068E+00  0.1469E+02
   7.110  0.4080E+00  0.4080E+00  0.1470E+02
   7.120  0.4092E+00  0.4093E+00  0.1471E+02
   7.130  0.4105E+00  0.4105E+00  0.1472E+02
   7.140  0.4119E+00  0.4119E+00  0.1473E+02
   7.150  0.4302E+00  0.4302E+00  0.1473E+02
   7.160  0.4322E+00  0.4322E+00  0.1474E+02
   7.170  0.4339E+00  0.4339E+00  0.1475E+02
   7.180  0.4353E+00  0.4353E+00  0.1476E+02
   7.190  0.4364E+00  0.4364E+00  0.1477E+02
   7.200  0.4377E+00  0.4377E+00  0.1478E+02
   7.210  0.4390E+00  0.4390E+00  0.1479E+02
   7.220  0.4402E+00  0.4402E+00  0.1480E+02
   7.230  0.4412E+00  0.4412E+00  0.1480E+02
   7.240  0.4417E+00  0.4417E+00  0.1481E+02
   7.250  0.4420E+00  0.4420E+00  0.1482E+02
   7.260  0.4437E+00  0.4437E+00  0.1483E+02
   7.270  0.4454E+00  0.4454E+00  0.1484E+02
   7.280  0.4472E+00  0.4472E+00  0.1485E+02
   7.290  0.4490E+00  0.4490E+00  0.1486E+02
   7.300  0.4508E+00  0.4508E+00  0.1487E+02
   7.310  0.4526E+00  0.4526E+00  0.1488E+02
   7.320  0.4545E+00  0.4545E+00  0.1489E+02
   7.330  0.4565E+00  0.4565E+00  0.1489E+02
   7.340  0.4588E+00  0.4588E+00  0.1490E+02
   7.350  0.4614E+00  0.4614E+00  0.1491E+02
   7.360  0.4640E+00  0.4640E+00  0.1492E+02
   7.370  0.4667E+00  0.4667E+00  0.1493E+02
   7.380  0.4695E+00  0.4695E+00  0.1494E+02
   7.390  0.4724E+00  0.4724E+00  0.1495E+02
   7.400  0.4753E+00  0.4753E+00  0.1496E+02
   7.410  0.4784E+00  0.4784E+00  0.1497E+02
   7.420  0.4813E+00  0.4813E+00  0.1498E+02
   7.430  0.4844E+00  0.4844E+00  0.1499E+02
   7.440  0.4875E+00  0.4875E+00  0.1500E+02
   7.450  0.4908E+00  0.4909E+00  0.1501E+02
   7.460  0.4957E+00  0.4957E+00  0.1502E+02
   7.470  0.5011E+00  0.5011E+00  0.1503E+02
   7.480  0.5071E+00  0.5072E+00  0.1504E+02
   7.490  0.5138E+00  0.5138E+00  0.1505E+02
   7.500  0.5207E+00  0.5207E+00  0.1506E+02
   7.510  0.5263E+00  0.5263E+00  0.1507E+02
   7.520  0.5319E+00  0.5319E+00  0.1508E+02
   7.530  0.5374E+00  0.5374E+00  0.1509E+02
   7.540  0.5428E+00  0.5428E+00  0.1510E+02
   7.550  0.5482E+00  0.5482E+00  0.1511E+02
   7.560  0.5535E+00  0.5535E+00  0.1512E+02
   7.570  0.5591E+00  0.5591E+00  0.1513E+02
   7.580  0.5658E+00  0.5658E+00  0.1515E+02
   7.590  0.5724E+00  0.5724E+00  0.1516E+02
   7.600  0.5780E+00  0.5780E+00  0.1517E+02
   7.610  0.5824E+00  0.5824E+00  0.1518E+02
   7.620  0.5859E+00  0.5859E+00  0.1519E+02
   7.630  0.5882E+00  0.5882E+00  0.1520E+02
   7.640  0.5895E+00  0.5895E+00  0.1521E+02
   7.650  0.5897E+00  0.5897E+00  0.1523E+02
   7.660  0.5888E+00  0.5888E+00  0.1524E+02
   7.670  0.5868E+00  0.5868E+00  0.1525E+02
   7.680  0.5838E+00  0.5838E+00  0.1526E+02
   7.690  0.5756E+00  0.5756E+00  0.1527E+02
   7.700  0.5660E+00  0.5660E+00  0.1528E+02
   7.710  0.5569E+00  0.5569E+00  0.1530E+02
   7.720  0.5494E+00  0.5494E+00  0.1531E+02
   7.730  0.5434E+00  0.5434E+00  0.1532E+02
   7.740  0.5391E+00  0.5391E+00  0.1533E+02
   7.750  0.5356E+00  0.5356E+00  0.1534E+02
   7.760  0.5337E+00  0.5337E+00  0.1535E+02
   7.770  0.5331E+00  0.5331E+00  0.1536E+02
   7.780  0.5326E+00  0.5326E+00  0.1537E+02
   7.790  0.5323E+00  0.5323E+00  0.1538E+02
   7.800  0.5321E+00  0.5321E+00  0.1539E+02
   7.810  0.5319E+00  0.5319E+00  0.1540E+02
   7.820  0.5319E+00  0.5319E+00  0.1541E+02
   7.830  0.5320E+00  0.5320E+00  0.1542E+02
   7.840  0.5322E+00  0.5322E+00  0.1544E+02
   7.850  0.5325E+00  0.5325E+00  0.1545E+02
   7.860  0.5329E+00  0.5329E+00  0.1546E+02
   7.870  0.5334E+00  0.5334E+00  0.1547E+02
   7.880  0.5338E+00  0.5338E+00  0.1548E+02
   7.890  0.5342E+00  0.5342E+00  0.1549E+02
   7.900  0.5345E+00  0.5345E+00  0.1550E+02
   7.910  0.5349E+00  0.5349E+00  0.1551E+02
   7.920  0.5352E+00  0.5352E+00  0.1552E+02
   7.930  0.5355E+00  0.5355E+00  0.1553E+02
   7.940  0.5358E+00  0.5358E+00  0.1554E+02
   7.950  0.5418E+00  0.5418E+00  0.1555E+02
   7.960  0.5575E+00  0.5575E+00  0.1556E+02
   7.970  0.5561E+00  0.5561E+00  0.1558E+02
   7.980  0.5536E+00  0.5536E+00  0.1559E+02
   7.990  0.5512E+00  0.5512E+00  0.1560E+02
   8.000  0.5494E+00  0.5494E+00  0.1561E+02
   8.010  0.5479E+00  0.5479E+00  0.1562E+02
   8.020  0.5472E+00  0.5472E+00  0.1563E+02
   8.030  0.5456E+00  0.5456E+00  0.1564E+02
   8.040  0.5441E+00  0.5441E+00  0.1565E+02
   8.050  0.5426E+00  0.5426E+00  0.1566E+02
   8.060  0.5411E+00  0.5411E+00  0.1567E+02
   8.070  0.5397E+00  0.5397E+00  0.1568E+02
   8.080  0.5383E+00  0.5383E+00  0.1570E+02
   8.090  0.5370E+00  0.5370E+00  0.1571E+02
   8.100  0.5357E+00  0.5357E+00  0.1572E+02
   8.110  0.5344E+00  0.5344E+00  0.1573E+02
   8.120  0.5332E+00  0.5332E+00  0.1574E+02
   8.130  0.5321E+00  0.5321E+00  0.1575E+02
   8.140  0.5309E+00  0.5309E+00  0.1576E+02
   8.150  0.5299E+00  0.5299E+00  0.1577E+02
   8.160  0.5288E+00  0.5288E+00  0.1578E+02
   8.170  0.5278E+00  0.5278E+00  0.1579E+02
   8.180  0.5269E+00  0.5269E+00  0.1580E+02
   8.190  0.5260E+00  0.5260E+00  0.1581E+02
   8.200  0.5251E+00  0.5251E+00  0.1582E+02
   8.210  0.5243E+00  0.5243E+00  0.1583E+02
   8.220  0.5235E+00  0.5235E+00  0.1584E+02
   8.230  0.5216E+00  0.5216E+00  0.1585E+02
   8.240  0.5194E+00  0.5194E+00  0.1586E+02
   8.250  0.5170E+00  0.5170E+00  0.1588E+02
   8.260  0.5149E+00  0.5149E+00  0.1589E+02
   8.270  0.5139E+00  0.5139E+00  0.1590E+02
   8.280  0.5131E+00  0.5131E+00  0.1591E+02
   8.290  0.5125E+00  0.5125E+00  0.1592E+02
   8.300  0.5119E+00  0.5119E+00  0.1593E+02
   8.310  0.5115E+00  0.5115E+00  0.1594E+02
   8.320  0.5111E+00  0.5111E+00  0.1595E+02
   8.330  0.5108E+00  0.5108E+00  0.1596E+02
   8.340  0.5106E+00  0.5106E+00  0.1597E+02
   8.350  0.5105E+00  0.5105E+00  0.1598E+02
   8.360  0.5104E+00  0.5104E+00  0.1599E+02
   8.370  0.5104E+00  0.5104E+00  0.1600E+02
   8.380  0.5105E+00  0.5105E+00  0.1601E+02
   8.390  0.5107E+00  0.5107E+00  0.1602E+02
   8.400  0.5110E+00  0.5110E+00  0.1603E+02
   8.410  0.5114E+00  0.5114E+00  0.1604E+02
   8.420  0.5130E+00  0.5130E+00  0.1605E+02
   8.430  0.5154E+00  0.5154E+00  0.1606E+02
   8.440  0.5149E+00  0.5149E+00  0.1607E+02
   8.450  0.5113E+00  0.5113E+00  0.1608E+02
   8.460  0.5048E+00  0.5048E+00  0.1609E+02
   8.470  0.5017E+00  0.5017E+00  0.1610E+02
   8.480  0.5006E+00  0.5006E+00  0.1611E+02
   8.490  0.4994E+00  0.4994E+00  0.1612E+02
   8.500  0.4983E+00  0.4983E+00  0.1613E+02
   8.510  0.4972E+00  0.4972E+00  0.1614E+02
   8.520  0.4962E+00  0.4962E+00  0.1615E+02
   8.530  0.4952E+00  0.4952E+00  0.1616E+02
   8.540  0.4942E+00  0.4942E+00  0.1617E+02
   8.550  0.4934E+00  0.4934E+00  0.1618E+02
   8.560  0.4926E+00  0.4926E+00  0.1619E+02
   8.570  0.4920E+00  0.4920E+00  0.1620E+02
   8.580  0.4915E+00  0.4915E+00  0.1621E+02
   8.590  0.4911E+00  0.4911E+00  0.1622E+02
   8.600  0.4908E+00  0.4908E+00  0.1623E+02
   8.610  0.4907E+00  0.4907E+00  0.1624E+02
   8.620  0.4907E+00  0.4907E+00  0.1625E+02
   8.630  0.4909E+00  0.4909E+00  0.1626E+02
   8.640  0.4912E+00  0.4912E+00  0.1627E+02
   8.650  0.4916E+00  0.4916E+00  0.1628E+02
   8.660  0.4944E+00  0.4944E+00  0.1629E+02
   8.670  0.4983E+00  0.4983E+00  0.1630E+02
   8.680  0.4990E+00  0.4990E+00  0.1631E+02
   8.690  0.4965E+00  0.4965E+00  0.1632E+02
   8.700  0.4941E+00  0.4941E+00  0.1633E+02
   8.710  0.4922E+00  0.4922E+00  0.1634E+02
   8.720  0.4904E+00  0.4904E+00  0.1635E+02
   8.730  0.4887E+00  0.4887E+00  0.1636E+02
   8.740  0.4872E+00  0.4872E+00  0.1637E+02
   8.750  0.4857E+00  0.4857E+00  0.1638E+02
   8.760  0.4843E+00  0.4843E+00  0.1639E+02
   8.770  0.4832E+00  0.4832E+00  0.1640E+02
   8.780  0.4822E+00  0.4822E+00  0.1641E+02
   8.790  0.4812E+00  0.4812E+00  0.1642E+02
   8.800  0.4804E+00  0.4804E+00  0.1642E+02
   8.810  0.4796E+00  0.4796E+00  0.1643E+02
   8.820  0.4790E+00  0.4790E+00  0.1644E+02
   8.830  0.4783E+00  0.4783E+00  0.1645E+02
   8.840  0.4777E+00  0.4777E+00  0.1646E+02
   8.850  0.4771E+00  0.4771E+00  0.1647E+02
   8.860  0.4765E+00  0.4765E+00  0.1648E+02
   8.870  0.4760E+00  0.4760E+00  0.1649E+02
   8.880  0.4754E+00  0.4754E+00  0.1650E+02
   8.890  0.4749E+00  0.4749E+00  0.1651E+02
   8.900  0.4744E+00  0.4744E+00  0.1652E+02
   8.910  0.4740E+00  0.4740E+00  0.1653E+02
   8.920  0.4734E+00  0.4734E+00  0.1654E+02
   8.930  0.4727E+00  0.4727E+00  0.1655E+02
   8.940  0.4719E+00  0.4719E+00  0.1656E+02
   8.950  0.4711E+00  0.4711E+00  0.1657E+02
   8.960  0.4703E+00  0.4703E+00  0.1658E+02
   8.970  0.4696E+00  0.4696E+00  0.1659E+02
   8.980  0.4689E+00  0.4689E+00  0.1660E+02
   8.990  0.4681E+00  0.4681E+00  0.1661E+02
   9.000  0.4674E+00  0.4674E+00  0.1661E+02
   9.010  0.4667E+00  0.4667E+00  0.1662E+02
   9.020  0.4660E+00  0.4660E+00  0.1663E+02
   9.030  0.4653E+00  0.4653E+00  0.1664E+02
   9.040  0.4645E+00  0.4645E+00  0.1665E+02
   9.050  0.4637E+00  0.4637E+00  0.1666E+02
   9.060  0.4628E+00  0.4628E+00  0.1667E+02
   9.070  0.4620E+00  0.4620E+00  0.1668E+02
   9.080  0.4611E+00  0.4611E+00  0.1669E+02
   9.090  0.4602E+00  0.4602E+00  0.1670E+02
   9.100  0.4592E+00  0.4592E+00  0.1671E+02
   9.110  0.4583E+00  0.4583E+00  0.1672E+02
   9.120  0.4573E+00  0.4573E+00  0.1673E+02
   9.130  0.4564E+00  0.4564E+00  0.1673E+02
   9.140  0.4555E+00  0.4555E+00  0.1674E+02
   9.150  0.4546E+00  0.4546E+00  0.1675E+02
   9.160  0.4537E+00  0.4537E+00  0.1676E+02
   9.170  0.4594E+00  0.4594E+00  0.1677E+02
   9.180  0.4660E+00  0.4660E+00  0.1678E+02
   9.190  0.4711E+00  0.4711E+00  0.1679E+02
   9.200  0.4746E+00  0.4746E+00  0.1680E+02
   9.210  0.4756E+00  0.4756E+00  0.1681E+02
   9.220  0.4758E+00  0.4758E+00  0.1682E+02
   9.230  0.4755E+00  0.4755E+00  0.1683E+02
   9.240  0.4746E+00  0.4746E+00  0.1684E+02
   9.250  0.4731E+00  0.4731E+00  0.1685E+02
   9.260  0.4711E+00  0.4711E+00  0.1686E+02
   9.270  0.4685E+00  0.4685E+00  0.1687E+02
   9.280  0.4655E+00  0.4655E+00  0.1687E+02
   9.290  0.4651E+00  0.4651E+00  0.1688E+02
   9.300  0.4608E+00  0.4608E+00  0.1689E+02
   9.310  0.4580E+00  0.4580E+00  0.1690E+02
   9.320  0.4572E+00  0.4572E+00  0.1691E+02
   9.330  0.4564E+00  0.4564E+00  0.1692E+02
   9.340  0.4557E+00  0.4557E+00  0.1693E+02
   9.350  0.4550E+00  0.4550E+00  0.1694E+02
   9.360  0.4543E+00  0.4543E+00  0.1695E+02
   9.370  0.4536E+00  0.4536E+00  0.1696E+02
   9.380  0.4545E+00  0.4545E+00  0.1697E+02
   9.390  0.4584E+00  0.4584E+00  0.1698E+02
   9.400  0.4616E+00  0.4616E+00  0.1698E+02
   9.410  0.4640E+00  0.4640E+00  0.1699E+02
