#  E (eV)   dos(E)     Int dos(E) EFermi =    6.732 eV
   5.000  0.1362E+01  0.1690E+02
   5.010  0.1357E+01  0.1691E+02
   5.020  0.1353E+01  0.1693E+02
   5.030  0.1349E+01  0.1694E+02
   5.040  0.1346E+01  0.1695E+02
   5.050  0.1342E+01  0.1697E+02
   5.060  0.1339E+01  0.1698E+02
   5.070  0.1337E+01  0.1699E+02
   5.080  0.1335E+01  0.1701E+02
   5.090  0.1334E+01  0.1702E+02
   5.100  0.1351E+01  0.1703E+02
   5.110  0.1377E+01  0.1705E+02
   5.120  0.1390E+01  0.1706E+02
   5.130  0.1389E+01  0.1707E+02
   5.140  0.1381E+01  0.1709E+02
   5.150  0.1375E+01  0.1710E+02
   5.160  0.1371E+01  0.1712E+02
   5.170  0.1368E+01  0.1713E+02
   5.180  0.1366E+01  0.1714E+02
   5.190  0.1363E+01  0.1716E+02
   5.200  0.1360E+01  0.1717E+02
   5.210  0.1422E+01  0.1719E+02
   5.220  0.1351E+01  0.1720E+02
   5.230  0.1345E+01  0.1721E+02
   5.240  0.1339E+01  0.1723E+02
   5.250  0.1332E+01  0.1724E+02
   5.260  0.1325E+01  0.1725E+02
   5.270  0.1319E+01  0.1727E+02
   5.280  0.1312E+01  0.1728E+02
   5.290  0.1305E+01  0.1729E+02
   5.300  0.1298E+01  0.1730E+02
   5.310  0.1291E+01  0.1732E+02
   5.320  0.1332E+01  0.1733E+02
   5.330  0.1358E+01  0.1734E+02
   5.340  0.1367E+01  0.1736E+02
   5.350  0.1360E+01  0.1737E+02
   5.360  0.1339E+01  0.1738E+02
   5.370  0.1302E+01  0.1740E+02
   5.380  0.1279E+01  0.1741E+02
   5.390  0.1263E+01  0.1742E+02
   5.400  0.1245E+01  0.1744E+02
   5.410  0.1236E+01  0.1745E+02
   5.420  0.1225E+01  0.1746E+02
   5.430  0.1199E+01  0.1747E+02
   5.440  0.1170E+01  0.1748E+02
   5.450  0.1137E+01  0.1750E+02
   5.460  0.1100E+01  0.1751E+02
   5.470  0.1062E+01  0.1752E+02
   5.480  0.1026E+01  0.1753E+02
   5.490  0.9937E+00  0.1754E+02
   5.500  0.9653E+00  0.1755E+02
   5.510  0.9408E+00  0.1756E+02
   5.520  0.9203E+00  0.1757E+02
   5.530  0.9033E+00  0.1758E+02
   5.540  0.8871E+00  0.1759E+02
   5.550  0.8711E+00  0.1759E+02
   5.560  0.8556E+00  0.1760E+02
   5.570  0.8403E+00  0.1761E+02
   5.580  0.8253E+00  0.1762E+02
   5.590  0.8107E+00  0.1763E+02
   5.600  0.7964E+00  0.1764E+02
   5.610  0.7824E+00  0.1764E+02
   5.620  0.7686E+00  0.1765E+02
   5.630  0.7552E+00  0.1766E+02
   5.640  0.7420E+00  0.1767E+02
   5.650  0.7292E+00  0.1767E+02
   5.660  0.7167E+00  0.1768E+02
   5.670  0.7046E+00  0.1769E+02
   5.680  0.6850E+00  0.1770E+02
   5.690  0.6659E+00  0.1770E+02
   5.700  0.6650E+00  0.1771E+02
   5.710  0.6810E+00  0.1772E+02
   5.720  0.6694E+00  0.1772E+02
   5.730  0.6582E+00  0.1773E+02
   5.740  0.6476E+00  0.1774E+02
   5.750  0.6374E+00  0.1774E+02
   5.760  0.6273E+00  0.1775E+02
   5.770  0.6174E+00  0.1775E+02
   5.780  0.6076E+00  0.1776E+02
   5.790  0.5979E+00  0.1777E+02
   5.800  0.5884E+00  0.1777E+02
   5.810  0.5789E+00  0.1778E+02
   5.820  0.5696E+00  0.1778E+02
   5.830  0.5605E+00  0.1779E+02
   5.840  0.5515E+00  0.1780E+02
   5.850  0.5426E+00  0.1780E+02
   5.860  0.5338E+00  0.1781E+02
   5.870  0.5252E+00  0.1781E+02
   5.880  0.5167E+00  0.1782E+02
   5.890  0.5083E+00  0.1782E+02
   5.900  0.5000E+00  0.1783E+02
   5.910  0.4919E+00  0.1783E+02
   5.920  0.4839E+00  0.1784E+02
   5.930  0.5357E+00  0.1784E+02
   5.940  0.5364E+00  0.1785E+02
   5.950  0.4853E+00  0.1785E+02
   5.960  0.4493E+00  0.1786E+02
   5.970  0.4412E+00  0.1786E+02
   5.980  0.4331E+00  0.1787E+02
   5.990  0.4289E+00  0.1787E+02
   6.000  0.4241E+00  0.1787E+02
   6.010  0.4188E+00  0.1788E+02
   6.020  0.4129E+00  0.1788E+02
   6.030  0.4065E+00  0.1789E+02
   6.040  0.3991E+00  0.1789E+02
   6.050  0.3907E+00  0.1789E+02
   6.060  0.3825E+00  0.1790E+02
   6.070  0.3744E+00  0.1790E+02
   6.080  0.3663E+00  0.1791E+02
   6.090  0.3584E+00  0.1791E+02
   6.100  0.3505E+00  0.1791E+02
   6.110  0.3427E+00  0.1792E+02
   6.120  0.3350E+00  0.1792E+02
   6.130  0.3273E+00  0.1792E+02
   6.140  0.3198E+00  0.1793E+02
   6.150  0.3123E+00  0.1793E+02
   6.160  0.3048E+00  0.1793E+02
   6.170  0.2975E+00  0.1794E+02
   6.180  0.2902E+00  0.1794E+02
   6.190  0.2830E+00  0.1794E+02
   6.200  0.2759E+00  0.1794E+02
   6.210  0.2688E+00  0.1795E+02
   6.220  0.2618E+00  0.1795E+02
   6.230  0.2549E+00  0.1795E+02
   6.240  0.2478E+00  0.1796E+02
   6.250  0.2398E+00  0.1796E+02
   6.260  0.2309E+00  0.1796E+02
   6.270  0.2210E+00  0.1796E+02
   6.280  0.2101E+00  0.1796E+02
   6.290  0.2012E+00  0.1797E+02
   6.300  0.1965E+00  0.1797E+02
   6.310  0.1917E+00  0.1797E+02
   6.320  0.1867E+00  0.1797E+02
   6.330  0.1815E+00  0.1797E+02
   6.340  0.1762E+00  0.1798E+02
   6.350  0.1708E+00  0.1798E+02
   6.360  0.1652E+00  0.1798E+02
   6.370  0.1594E+00  0.1798E+02
   6.380  0.1535E+00  0.1798E+02
   6.390  0.1474E+00  0.1798E+02
   6.400  0.1412E+00  0.1799E+02
   6.410  0.1348E+00  0.1799E+02
   6.420  0.1283E+00  0.1799E+02
   6.430  0.1216E+00  0.1799E+02
   6.440  0.1148E+00  0.1799E+02
   6.450  0.1078E+00  0.1799E+02
   6.460  0.1007E+00  0.1799E+02
   6.470  0.9340E-01  0.1799E+02
   6.480  0.8596E-01  0.1799E+02
   6.490  0.7837E-01  0.1800E+02
   6.500  0.7062E-01  0.1800E+02
   6.510  0.6409E-01  0.1800E+02
   6.520  0.5290E-01  0.1800E+02
   6.530  0.4278E-01  0.1800E+02
   6.540  0.3374E-01  0.1800E+02
   6.550  0.2577E-01  0.1800E+02
   6.560  0.1887E-01  0.1800E+02
   6.570  0.1304E-01  0.1800E+02
   6.580  0.8289E-02  0.1800E+02
   6.590  0.4608E-02  0.1800E+02
   6.600  0.2000E-02  0.1800E+02
   6.610  0.4650E-03  0.1800E+02
   6.620  0.0000E+00  0.1800E+02
   6.630  0.0000E+00  0.1800E+02
   6.640  0.0000E+00  0.1800E+02
   6.650  0.0000E+00  0.1800E+02
   6.660  0.0000E+00  0.1800E+02
   6.670  0.0000E+00  0.1800E+02
   6.680  0.0000E+00  0.1800E+02
   6.690  0.0000E+00  0.1800E+02
   6.700  0.0000E+00  0.1800E+02
   6.710  0.0000E+00  0.1800E+02
   6.720  0.0000E+00  0.1800E+02
   6.730  0.0000E+00  0.1800E+02
   6.740  0.0000E+00  0.1800E+02
   6.750  0.0000E+00  0.1800E+02
   6.760  0.0000E+00  0.1800E+02
   6.770  0.0000E+00  0.1800E+02
   6.780  0.0000E+00  0.1800E+02
   6.790  0.0000E+00  0.1800E+02
   6.800  0.0000E+00  0.1800E+02
   6.810  0.0000E+00  0.1800E+02
   6.820  0.0000E+00  0.1800E+02
   6.830  0.0000E+00  0.1800E+02
   6.840  0.0000E+00  0.1800E+02
   6.850  0.0000E+00  0.1800E+02
   6.860  0.0000E+00  0.1800E+02
   6.870  0.0000E+00  0.1800E+02
   6.880  0.0000E+00  0.1800E+02
   6.890  0.0000E+00  0.1800E+02
   6.900  0.0000E+00  0.1800E+02
   6.910  0.0000E+00  0.1800E+02
   6.920  0.0000E+00  0.1800E+02
   6.930  0.0000E+00  0.1800E+02
   6.940  0.0000E+00  0.1800E+02
   6.950  0.0000E+00  0.1800E+02
   6.960  0.0000E+00  0.1800E+02
   6.970  0.0000E+00  0.1800E+02
   6.980  0.0000E+00  0.1800E+02
   6.990  0.0000E+00  0.1800E+02
   7.000  0.0000E+00  0.1800E+02
   7.010  0.0000E+00  0.1800E+02
   7.020  0.0000E+00  0.1800E+02
   7.030  0.0000E+00  0.1800E+02
   7.040  0.0000E+00  0.1800E+02
   7.050  0.0000E+00  0.1800E+02
   7.060  0.8085E-06  0.1800E+02
   7.070  0.3664E-05  0.1800E+02
   7.080  0.8579E-05  0.1800E+02
   7.090  0.1555E-04  0.1800E+02
   7.100  0.2459E-04  0.1800E+02
   7.110  0.3568E-04  0.1800E+02
   7.120  0.4884E-04  0.1800E+02
   7.130  0.6405E-04  0.1800E+02
   7.140  0.8133E-04  0.1800E+02
   7.150  0.1007E-03  0.1800E+02
   7.160  0.1221E-03  0.1800E+02
   7.170  0.1455E-03  0.1800E+02
   7.180  0.1710E-03  0.1800E+02
   7.190  0.1986E-03  0.1800E+02
   7.200  0.2282E-03  0.1800E+02
   7.210  0.2599E-03  0.1800E+02
   7.220  0.2937E-03  0.1800E+02
   7.230  0.3295E-03  0.1800E+02
   7.240  0.3674E-03  0.1800E+02
   7.250  0.4073E-03  0.1800E+02
   7.260  0.4493E-03  0.1800E+02
   7.270  0.4934E-03  0.1800E+02
   7.280  0.5395E-03  0.1800E+02
   7.290  0.5876E-03  0.1800E+02
   7.300  0.6379E-03  0.1800E+02
   7.310  0.6902E-03  0.1800E+02
   7.320  0.7445E-03  0.1800E+02
   7.330  0.8009E-03  0.1800E+02
   7.340  0.8594E-03  0.1800E+02
   7.350  0.9199E-03  0.1800E+02
   7.360  0.9825E-03  0.1800E+02
   7.370  0.1047E-02  0.1800E+02
   7.380  0.1114E-02  0.1800E+02
   7.390  0.1183E-02  0.1800E+02
   7.400  0.1254E-02  0.1800E+02
   7.410  0.1326E-02  0.1800E+02
   7.420  0.1401E-02  0.1800E+02
   7.430  0.1478E-02  0.1800E+02
   7.440  0.1557E-02  0.1800E+02
   7.450  0.1639E-02  0.1800E+02
   7.460  0.1722E-02  0.1800E+02
   7.470  0.1807E-02  0.1800E+02
   7.480  0.1894E-02  0.1800E+02
   7.490  0.1984E-02  0.1800E+02
   7.500  0.2075E-02  0.1800E+02
   7.510  0.2169E-02  0.1800E+02
   7.520  0.2277E-02  0.1800E+02
   7.530  0.2502E-02  0.1800E+02
   7.540  0.2867E-02  0.1800E+02
   7.550  0.3370E-02  0.1800E+02
   7.560  0.4012E-02  0.1800E+02
   7.570  0.4793E-02  0.1800E+02
   7.580  0.5693E-02  0.1800E+02
   7.590  0.6662E-02  0.1800E+02
   7.600  0.7697E-02  0.1800E+02
   7.610  0.8799E-02  0.1800E+02
   7.620  0.9966E-02  0.1800E+02
   7.630  0.1120E-01  0.1800E+02
   7.640  0.1250E-01  0.1800E+02
   7.650  0.1387E-01  0.1800E+02
   7.660  0.1530E-01  0.1800E+02
   7.670  0.1680E-01  0.1800E+02
   7.680  0.1837E-01  0.1800E+02
   7.690  0.2000E-01  0.1800E+02
   7.700  0.2170E-01  0.1800E+02
   7.710  0.2346E-01  0.1800E+02
   7.720  0.2529E-01  0.1800E+02
   7.730  0.2719E-01  0.1800E+02
   7.740  0.2915E-01  0.1800E+02
   7.750  0.3118E-01  0.1800E+02
   7.760  0.3328E-01  0.1800E+02
   7.770  0.3545E-01  0.1800E+02
   7.780  0.3769E-01  0.1800E+02
   7.790  0.3999E-01  0.1800E+02
   7.800  0.4237E-01  0.1801E+02
   7.810  0.4481E-01  0.1801E+02
   7.820  0.4732E-01  0.1801E+02
   7.830  0.4990E-01  0.1801E+02
   7.840  0.5254E-01  0.1801E+02
   7.850  0.5526E-01  0.1801E+02
   7.860  0.5804E-01  0.1801E+02
   7.870  0.6089E-01  0.1801E+02
   7.880  0.6381E-01  0.1801E+02
   7.890  0.6680E-01  0.1801E+02
   7.900  0.7001E-01  0.1801E+02
   7.910  0.7425E-01  0.1801E+02
   7.920  0.7995E-01  0.1801E+02
   7.930  0.8754E-01  0.1801E+02
   7.940  0.9615E-01  0.1801E+02
   7.950  0.1055E+00  0.1802E+02
   7.960  0.1155E+00  0.1802E+02
   7.970  0.1262E+00  0.1802E+02
   7.980  0.1377E+00  0.1802E+02
   7.990  0.1499E+00  0.1802E+02
   8.000  0.1628E+00  0.1802E+02
   8.010  0.1765E+00  0.1802E+02
   8.020  0.1909E+00  0.1803E+02
   8.030  0.2061E+00  0.1803E+02
   8.040  0.2220E+00  0.1803E+02
   8.050  0.2387E+00  0.1803E+02
   8.060  0.2561E+00  0.1803E+02
   8.070  0.2743E+00  0.1804E+02
   8.080  0.2868E+00  0.1804E+02
   8.090  0.2987E+00  0.1804E+02
   8.100  0.3112E+00  0.1805E+02
   8.110  0.3243E+00  0.1805E+02
   8.120  0.3379E+00  0.1805E+02
   8.130  0.3521E+00  0.1806E+02
   8.140  0.3669E+00  0.1806E+02
   8.150  0.3823E+00  0.1806E+02
   8.160  0.3982E+00  0.1807E+02
   8.170  0.4619E+00  0.1807E+02
   8.180  0.4792E+00  0.1808E+02
   8.190  0.4971E+00  0.1808E+02
   8.200  0.5111E+00  0.1809E+02
   8.210  0.5249E+00  0.1809E+02
   8.220  0.5388E+00  0.1810E+02
   8.230  0.5528E+00  0.1810E+02
   8.240  0.5669E+00  0.1811E+02
   8.250  0.5811E+00  0.1812E+02
   8.260  0.5954E+00  0.1812E+02
   8.270  0.6655E+00  0.1813E+02
   8.280  0.6027E+00  0.1813E+02
   8.290  0.6166E+00  0.1814E+02
   8.300  0.6305E+00  0.1815E+02
   8.310  0.6445E+00  0.1815E+02
   8.320  0.6586E+00  0.1816E+02
   8.330  0.6729E+00  0.1817E+02
   8.340  0.6873E+00  0.1817E+02
   8.350  0.7017E+00  0.1818E+02
   8.360  0.7162E+00  0.1819E+02
   8.370  0.7308E+00  0.1819E+02
   8.380  0.7454E+00  0.1820E+02
   8.390  0.7601E+00  0.1821E+02
   8.400  0.7749E+00  0.1822E+02
   8.410  0.7897E+00  0.1823E+02
   8.420  0.8045E+00  0.1823E+02
   8.430  0.8194E+00  0.1824E+02
   8.440  0.8344E+00  0.1825E+02
   8.450  0.8495E+00  0.1826E+02
   8.460  0.9404E+00  0.1827E+02
   8.470  0.8796E+00  0.1828E+02
   8.480  0.8957E+00  0.1828E+02
   8.490  0.9128E+00  0.1829E+02
   8.500  0.9361E+00  0.1830E+02
   8.510  0.9669E+00  0.1831E+02
   8.520  0.1004E+01  0.1832E+02
   8.530  0.1023E+01  0.1833E+02
   8.540  0.1044E+01  0.1834E+02
   8.550  0.1065E+01  0.1835E+02
   8.560  0.1088E+01  0.1836E+02
   8.570  0.1112E+01  0.1838E+02
   8.580  0.1136E+01  0.1839E+02
   8.590  0.1162E+01  0.1840E+02
   8.600  0.1188E+01  0.1841E+02
   8.610  0.1216E+01  0.1842E+02
   8.620  0.1244E+01  0.1843E+02
   8.630  0.1272E+01  0.1845E+02
   8.640  0.1298E+01  0.1846E+02
   8.650  0.1319E+01  0.1847E+02
   8.660  0.1332E+01  0.1849E+02
   8.670  0.1337E+01  0.1850E+02
   8.680  0.1334E+01  0.1851E+02
   8.690  0.1326E+01  0.1853E+02
   8.700  0.1334E+01  0.1854E+02
   8.710  0.1350E+01  0.1855E+02
   8.720  0.1367E+01  0.1857E+02
   8.730  0.1386E+01  0.1858E+02
   8.740  0.1405E+01  0.1859E+02
   8.750  0.1425E+01  0.1861E+02
   8.760  0.1447E+01  0.1862E+02
   8.770  0.1470E+01  0.1864E+02
   8.780  0.1495E+01  0.1865E+02
   8.790  0.1523E+01  0.1867E+02
   8.800  0.1551E+01  0.1868E+02
   8.810  0.1580E+01  0.1870E+02
   8.820  0.1610E+01  0.1871E+02
   8.830  0.1644E+01  0.1873E+02
   8.840  0.1684E+01  0.1875E+02
   8.850  0.1732E+01  0.1876E+02
   8.860  0.1791E+01  0.1878E+02
   8.870  0.1907E+01  0.1880E+02
   8.880  0.1960E+01  0.1882E+02
   8.890  0.1928E+01  0.1884E+02
   8.900  0.1903E+01  0.1886E+02
   8.910  0.1898E+01  0.1888E+02
   8.920  0.1908E+01  0.1890E+02
   8.930  0.1918E+01  0.1891E+02
   8.940  0.1926E+01  0.1893E+02
   8.950  0.1932E+01  0.1895E+02
   8.960  0.1939E+01  0.1897E+02
   8.970  0.1947E+01  0.1899E+02
   8.980  0.1956E+01  0.1901E+02
   8.990  0.1964E+01  0.1903E+02
   9.000  0.1972E+01  0.1905E+02
   9.010  0.1979E+01  0.1907E+02
   9.020  0.2017E+01  0.1909E+02
   9.030  0.2067E+01  0.1911E+02
   9.040  0.2093E+01  0.1913E+02
   9.050  0.2091E+01  0.1915E+02
   9.060  0.2066E+01  0.1917E+02
   9.070  0.2042E+01  0.1919E+02
   9.080  0.2033E+01  0.1921E+02
   9.090  0.2025E+01  0.1923E+02
   9.100  0.2018E+01  0.1926E+02
   9.110  0.2012E+01  0.1928E+02
   9.120  0.2007E+01  0.1930E+02
   9.130  0.2002E+01  0.1932E+02
   9.140  0.1999E+01  0.1934E+02
   9.150  0.1980E+01  0.1936E+02
   9.160  0.1938E+01  0.1937E+02
   9.170  0.1900E+01  0.1939E+02
   9.180  0.1856E+01  0.1941E+02
   9.190  0.1807E+01  0.1943E+02
   9.200  0.1753E+01  0.1945E+02
   9.210  0.1679E+01  0.1947E+02
   9.220  0.1552E+01  0.1948E+02
   9.230  0.1514E+01  0.1950E+02
   9.240  0.1480E+01  0.1951E+02
   9.250  0.1451E+01  0.1953E+02
   9.260  0.1427E+01  0.1954E+02
   9.270  0.1387E+01  0.1956E+02
   9.280  0.1372E+01  0.1957E+02
   9.290  0.1355E+01  0.1958E+02
   9.300  0.1335E+01  0.1960E+02
   9.310  0.1315E+01  0.1961E+02
   9.320  0.1296E+01  0.1962E+02
   9.330  0.1276E+01  0.1964E+02
   9.340  0.1256E+01  0.1965E+02
   9.350  0.1236E+01  0.1966E+02
   9.360  0.1215E+01  0.1967E+02
   9.370  0.1195E+01  0.1969E+02
   9.380  0.1174E+01  0.1970E+02
   9.390  0.1153E+01  0.1971E+02
   9.400  0.1132E+01  0.1972E+02
   9.410  0.1111E+01  0.1973E+02
   9.420  0.1089E+01  0.1974E+02
   9.430  0.1069E+01  0.1975E+02
   9.440  0.1055E+01  0.1976E+02
   9.450  0.1040E+01  0.1977E+02
   9.460  0.1026E+01  0.1978E+02
   9.470  0.1011E+01  0.1979E+02
   9.480  0.9964E+00  0.1980E+02
   9.490  0.9815E+00  0.1981E+02
   9.500  0.9666E+00  0.1982E+02
   9.510  0.9514E+00  0.1983E+02
   9.520  0.9347E+00  0.1984E+02
   9.530  0.9181E+00  0.1985E+02
   9.540  0.9022E+00  0.1986E+02
   9.550  0.8861E+00  0.1987E+02
   9.560  0.8697E+00  0.1988E+02
   9.570  0.8531E+00  0.1989E+02
   9.580  0.8363E+00  0.1990E+02
   9.590  0.8193E+00  0.1990E+02
   9.600  0.8020E+00  0.1991E+02
   9.610  0.7852E+00  0.1992E+02
   9.620  0.7705E+00  0.1993E+02
   9.630  0.7578E+00  0.1994E+02
   9.640  0.7473E+00  0.1994E+02
   9.650  0.7389E+00  0.1995E+02
   9.660  0.7338E+00  0.1996E+02
   9.670  0.7334E+00  0.1997E+02
   9.680  0.7345E+00  0.1997E+02
   9.690  0.7371E+00  0.1998E+02
   9.700  0.7401E+00  0.1999E+02
   9.710  0.7440E+00  0.2000E+02
   9.720  0.7488E+00  0.2000E+02
   9.730  0.7548E+00  0.2001E+02
   9.740  0.7618E+00  0.2002E+02
   9.750  0.7699E+00  0.2003E+02
   9.760  0.7791E+00  0.2003E+02
   9.770  0.7893E+00  0.2004E+02
   9.780  0.8007E+00  0.2005E+02
   9.790  0.8132E+00  0.2006E+02
   9.800  0.8264E+00  0.2007E+02
   9.810  0.8435E+00  0.2007E+02
   9.820  0.8678E+00  0.2008E+02
   9.830  0.8991E+00  0.2009E+02
   9.840  0.9882E+00  0.2010E+02
   9.850  0.1053E+01  0.2011E+02
   9.860  0.1069E+01  0.2012E+02
   9.870  0.1036E+01  0.2013E+02
   9.880  0.1035E+01  0.2014E+02
   9.890  0.1019E+01  0.2015E+02
   9.900  0.9744E+00  0.2016E+02
   9.910  0.9221E+00  0.2017E+02
   9.920  0.9087E+00  0.2018E+02
   9.930  0.8959E+00  0.2019E+02
   9.940  0.8894E+00  0.2020E+02
   9.950  0.8900E+00  0.2021E+02
   9.960  0.8906E+00  0.2022E+02
   9.970  0.8915E+00  0.2023E+02
   9.980  0.8924E+00  0.2023E+02
   9.990  0.8935E+00  0.2024E+02
  10.000  0.8946E+00  0.2025E+02
  10.010  0.8957E+00  0.2026E+02
  10.020  0.8968E+00  0.2027E+02
  10.030  0.8979E+00  0.2028E+02
  10.040  0.8991E+00  0.2029E+02
  10.050  0.9002E+00  0.2030E+02
  10.060  0.9013E+00  0.2031E+02
  10.070  0.9020E+00  0.2032E+02
  10.080  0.9028E+00  0.2032E+02
  10.090  0.9040E+00  0.2033E+02
  10.100  0.9056E+00  0.2034E+02
  10.110  0.9079E+00  0.2035E+02
  10.120  0.9076E+00  0.2036E+02
  10.130  0.9044E+00  0.2037E+02
  10.140  0.8946E+00  0.2038E+02
  10.150  0.8803E+00  0.2039E+02
  10.160  0.8711E+00  0.2040E+02
  10.170  0.8625E+00  0.2041E+02
  10.180  0.8543E+00  0.2041E+02
  10.190  0.8465E+00  0.2042E+02
  10.200  0.8389E+00  0.2043E+02
  10.210  0.8318E+00  0.2044E+02
  10.220  0.8249E+00  0.2045E+02
  10.230  0.8184E+00  0.2046E+02
  10.240  0.8122E+00  0.2046E+02
  10.250  0.8063E+00  0.2047E+02
  10.260  0.8008E+00  0.2048E+02
  10.270  0.7956E+00  0.2049E+02
  10.280  0.7907E+00  0.2050E+02
  10.290  0.7867E+00  0.2050E+02
  10.300  0.7835E+00  0.2051E+02
  10.310  0.7811E+00  0.2052E+02
  10.320  0.7832E+00  0.2053E+02
  10.330  0.7983E+00  0.2054E+02
  10.340  0.8075E+00  0.2054E+02
  10.350  0.8136E+00  0.2055E+02
  10.360  0.8222E+00  0.2056E+02
  10.370  0.8344E+00  0.2057E+02
  10.380  0.8437E+00  0.2058E+02
  10.390  0.8491E+00  0.2058E+02
  10.400  0.8499E+00  0.2059E+02
  10.410  0.8471E+00  0.2060E+02
  10.420  0.8404E+00  0.2061E+02
  10.430  0.8315E+00  0.2062E+02
  10.440  0.8392E+00  0.2063E+02
  10.450  0.8493E+00  0.2064E+02
  10.460  0.8692E+00  0.2064E+02
  10.470  0.8804E+00  0.2065E+02
  10.480  0.8828E+00  0.2066E+02
  10.490  0.8765E+00  0.2067E+02
  10.500  0.8813E+00  0.2068E+02
  10.510  0.8880E+00  0.2069E+02
  10.520  0.8946E+00  0.2070E+02
  10.530  0.9013E+00  0.2071E+02
  10.540  0.9079E+00  0.2071E+02
  10.550  0.9146E+00  0.2072E+02
  10.560  0.9212E+00  0.2073E+02
  10.570  0.9277E+00  0.2074E+02
  10.580  0.9340E+00  0.2075E+02
  10.590  0.9401E+00  0.2076E+02
  10.600  0.9462E+00  0.2077E+02
  10.610  0.9521E+00  0.2078E+02
  10.620  0.9579E+00  0.2079E+02
  10.630  0.9636E+00  0.2080E+02
  10.640  0.9691E+00  0.2081E+02
  10.650  0.9745E+00  0.2082E+02
  10.660  0.9798E+00  0.2083E+02
  10.670  0.9850E+00  0.2084E+02
  10.680  0.9900E+00  0.2085E+02
  10.690  0.9950E+00  0.2086E+02
  10.700  0.9998E+00  0.2087E+02
  10.710  0.1004E+01  0.2088E+02
  10.720  0.1009E+01  0.2089E+02
  10.730  0.1013E+01  0.2090E+02
  10.740  0.1042E+01  0.2091E+02
  10.750  0.1103E+01  0.2092E+02
  10.760  0.1193E+01  0.2093E+02
  10.770  0.1297E+01  0.2094E+02
  10.780  0.1370E+01  0.2096E+02
  10.790  0.1436E+01  0.2097E+02
  10.800  0.1501E+01  0.2098E+02
  10.810  0.1564E+01  0.2100E+02
  10.820  0.1628E+01  0.2102E+02
  10.830  0.1693E+01  0.2103E+02
  10.840  0.1758E+01  0.2105E+02
  10.850  0.1822E+01  0.2107E+02
  10.860  0.1885E+01  0.2109E+02
  10.870  0.1948E+01  0.2111E+02
  10.880  0.2014E+01  0.2113E+02
  10.890  0.2084E+01  0.2115E+02
  10.900  0.2153E+01  0.2117E+02
  10.910  0.2217E+01  0.2119E+02
  10.920  0.2274E+01  0.2121E+02
  10.930  0.2325E+01  0.2123E+02
  10.940  0.2370E+01  0.2126E+02
  10.950  0.2417E+01  0.2128E+02
  10.960  0.2482E+01  0.2131E+02
  10.970  0.2566E+01  0.2133E+02
  10.980  0.2641E+01  0.2136E+02
  10.990  0.2672E+01  0.2138E+02
  11.000  0.2589E+01  0.2141E+02
  11.010  0.2341E+01  0.2144E+02
  11.020  0.2264E+01  0.2146E+02
  11.030  0.2185E+01  0.2148E+02
